File: phy420/sheet2/Ex2-XPS-GaN.txt
-700,11425.5
-697.5,11551.5
-695,11521.9
-692.5,11946.7
-690,11819.7
-687.5,12255.2
-685,12419.7
-682.5,12511.2
-680,12003.7
-677.5,12181.7
-675,12077.8
-672.5,12216.5
-670,12642.4
-667.5,12877
-665,12973.8
-662.5,13006
-660,13234.9
-657.5,13393.8
-655,14065.5
-652.5,14076.7
-650,14083.4
-647.5,14662.2
-645,14427.3
-642.5,14439
-640,14669.1
-637.5,15775.2
-635,15968.2
-632.5,15038
-630,14724.7
-627.5,14056.7
-625,12419.4
-622.5,15560.8
-620,19477.5
-617.5,18207
-615,16784.9
-612.5,14934.1
-610,11513.7
-607.5,10732.4
-605,10632.7
-602.5,10581.9
-600,10783.7
-597.5,10631.1
-595,10875.2
-592.5,11103.3
-590,11123
-587.5,11684.1
-585,11481.3
-582.5,11652.4
-580,12187.8
-577.5,12095.7
-575,12099
-572.5,12180.4
-570,11244.9
-567.5,11636
-565,12749.8
-562.5,13108
-560,13755.6
-557.5,14882.2
-555,14360.1
-552.5,14892.4
-550,14704.3
-547.5,14407.4
-545,13485.1
-542.5,13130.6
-540,12934.3
-537.5,13964.3
-535,15242.5
-532.5,39313.4
-530,25252.4
-527.5,13366.8
-525,12753
-522.5,12702.1
-520,13693.9
-517.5,13873.3
-515,13198.7
-512.5,13799.5
-510,14238.7
-507.5,13751.1
-505,13843
-502.5,14127.1
-500,14109.7
-497.5,14087.3
-495,14395.7
-492.5,15931.2
-490,18729.2
-487.5,17730.8
-485,15293.7
-482.5,14809
-480,13860.1
-477.5,13929.6
-475,13940
-472.5,14264.9
-470,14194.4
-467.5,14280
-465,14959.3
-462.5,15079.3
-460,15040
-457.5,15411
-455,15730.8
-452.5,16468.6
-450,16637.1
-447.5,16625.8
-445,16643.5
-442.5,17002.6
-440,17329.2
-437.5,17624.3
-435,18330.2
-432.5,18096.3
-430,19117.8
-427.5,18882.6
-425,19851.5
-422.5,20116
-420,20643.3
-417.5,24132.2
-415,21894
-412.5,18976.7
-410,15570.3
-407.5,14487.6
-405,13046.1
-402.5,11622.7
-400,16918.2
-397.5,180962
-395,14227.8
-392.5,10104.7
-390,9393.1
-387.5,8841.7
-385,8562.41
-382.5,8798.86
-380,8627.75
-377.5,8578.96
-375,8845.13
-372.5,8955.63
-370,9073
-367.5,9084.46
-365,9060.42
-362.5,8891.33
-360,9280.94
-357.5,9250.83
-355,9352.77
-352.5,9504.77
-350,9388.48
-347.5,9670.54
-345,9792.49
-342.5,10117
-340,10051.2
-337.5,9891.09
-335,10516.6
-332.5,10423.8
-330,10628.8
-327.5,10769.9
-325,10756.7
-322.5,11095.2
-320,11794.8
-317.5,11849
-315,11533.7
-312.5,11717.9
-310,11830.5
-307.5,11962.8
-305,12089.5
-302.5,12038.2
-300,12073.2
-297.5,12575
-295,12595.8
-292.5,13218.5
-290,13701
-287.5,15520.7
-285,31898.1
-282.5,13292.9
-280,12157.7
-277.5,12190.4
-275,11678.7
-272.5,11969.5
-270,12166
-267.5,12375.4
-265,12175.8
-262.5,12672.5
-260,12744.5
-257.5,13291.1
-255,13097.1
-252.5,13044
-250,13132.5
-247.5,13553.8
-245,13585.5
-242.5,13558.4
-240,13984.3
-237.5,14353.5
-235,14681.7
-232.5,14473.8
-230,14975.9
-227.5,14679
-225,14993.1
-222.5,14800.6
-220,15484.6
-217.5,15659.2
-215,15933.7
-212.5,16035.2
-210,17050.6
-207.5,17566
-205,17326.8
-202.5,17631.4
-200,17647.2
-197.5,17890.7
-195,18282.6
-192.5,19168.6
-190,19266.8
-187.5,19813.6
-185,20774.4
-182.5,21335.6
-180,21679.9
-177.5,22054.8
-175,20692.4
-172.5,20688.4
-170,20500.9
-167.5,20852.9
-165,23229.3
-162.5,40695.8
-160,52041.1
-157.5,24731.7
-155,21149.8
-152.5,20383.4
-150,20143.1
-147.5,19705.9
-145,20691.7
-142.5,20345.1
-140,21602.7
-137.5,22160.3
-135,23408.1
-132.5,23942.8
-130,25882.2
-127.5,27282.4
-125,27282.8
-122.5,23903
-120,22162.3
-117.5,19341.8
-115,19318.7
-112.5,23849
-110,59049.5
-107.5,70962.4
-105,98047.2
-102.5,28336.3
-100,14347.9
-97.5,10645.1
-95,8952.83
-92.5,8072.75
-90,7912.53
-87.5,7691.57
-85,7525.61
-82.5,7377.03
-80,7539.41
-77.5,8094.51
-75,8766.41
-72.5,8195.78
-70,8461.87
-67.5,8288.24
-65,8585.5
-62.5,8591.29
-60,8976.72
-57.5,9112.17
-55,9766.7
-52.5,10218.7
-50,10278.6
-47.5,10687.8
-45,11948.8
-42.5,12811.7
-40,14606.8
-37.5,12529.6
-35,10202.4
-32.5,8461
-30,7850.87
-27.5,7059.28
-25,8153.23
-22.5,21074.1
-20,114570
-17.5,10315
-15,3989.77
-12.5,2704.76
-10,5127.99
-7.5,4133.26
-5,4331.78
-2.5,1870.9
0,1347.77
2.5,1244.26
5,1229.27